# From SOPRA S.A. http://www.sopra-sa.com/indices.htm
# Filename    Symbol               Range (nm)     Description
# AG          Ag                  187     2066    Silver
# lambda/um       n         k
0.18786  0.995000  1.130000
0.18929  1.004250  1.149375
0.19075  1.012000  1.160000
0.19223  1.019500  1.168125
0.19373  1.028000  1.180000
0.19525  1.037500  1.194375
0.19680  1.048000  1.210000
0.19838  1.059625  1.225625
0.19998  1.072000  1.240000
0.20160  1.084812  1.251250
0.20325  1.098000  1.260000
0.20493  1.111625  1.265625
0.20664  1.125000  1.270000
0.20838  1.137188  1.275000
0.21014  1.149000  1.280000
0.21194  1.161438  1.285312
0.21377  1.173000  1.290000
0.21563  1.181875  1.292813
0.21752  1.190000  1.295000
0.21944  1.199125  1.297500
0.22140  1.208000  1.300000
0.22340  1.215688  1.302500
0.22543  1.223000  1.305000
0.22750  1.230688  1.307187
0.22960  1.238000  1.310000
0.23175  1.244000  1.314687
0.23393  1.250000  1.320000
0.23616  1.257188  1.325000
0.23843  1.265000  1.330000
0.24075  1.273437  1.335000
0.24311  1.282000  1.340000
0.24552  1.289687  1.345625
0.24797  1.298000  1.350000
0.25048  1.308563  1.350625
0.25303  1.320000  1.350000
0.25564  1.331063  1.350000
0.25830  1.343000  1.350000
0.26102  1.356938  1.351250
0.26380  1.372000  1.350000
0.26663  1.387500  1.341250
0.26953  1.404000  1.330000
0.27249  1.422312  1.321875
0.27552  1.441000  1.310000
0.27862  1.459188  1.288125
0.28178  1.476000  1.260000
0.28502  1.490125  1.228750
0.28834  1.502000  1.190000
0.29173  1.513563  1.143000
0.29520  1.519000  1.080000
0.29876  1.519375  0.988813
0.30240  1.496000  0.882000
0.30614  1.432500  0.761063
0.30996  1.323000  0.647000
0.31389  1.142062  0.550875
0.31791  0.932000  0.504000
0.32204  0.719062  0.554375
0.32628  0.526000  0.663000
0.33063  0.388125  0.818563
0.33510  0.294000  0.986000
0.33969  0.253313  1.120687
0.34440  0.238000  1.240000
0.34925  0.221438  1.345250
0.35424  0.209000  1.440000
0.35938  0.194813  1.533750
0.36466  0.186000  1.610000
0.37011  0.192063  1.641875
0.37571  0.200000  1.670000
0.38149  0.198063  1.735000
0.38745  0.192000  1.810000
0.39360  0.182000  1.878750
0.39995  0.173000  1.950000
0.40651  0.172625  2.029375
0.41328  0.173000  2.110000
0.42029  0.166688  2.186250
0.42754  0.160000  2.260000
0.43504  0.158500  2.329375
0.44280  0.157000  2.400000
0.45086  0.151063  2.478750
0.45920  0.144000  2.560000
0.46787  0.137313  2.640000
0.47687  0.132000  2.720000
0.48622  0.130250  2.798125
0.49594  0.130000  2.880000
0.50606  0.129938  2.973750
0.51660  0.130000  3.070000
0.52760  0.130063  3.159375
0.53907  0.129000  3.250000
0.55105  0.124375  3.348125
0.56357  0.120000  3.450000
0.57668  0.119313  3.553750
0.59041  0.121000  3.660000
0.60481  0.125500  3.766250
0.61993  0.131000  3.880000
0.63582  0.136125  4.010625
0.65255  0.140000  4.150000
0.67019  0.140063  4.293125
0.68881  0.140000  4.440000
0.70849  0.144313  4.586250
0.72932  0.148000  4.740000
0.75143  0.145875  4.908125
0.77491  0.143000  5.090000
0.79990  0.142563  5.288750
0.82657  0.145000  5.500000
0.85507  0.151938  5.720624
0.88561  0.163000  5.950000
0.91841  0.179875  6.183125
0.95373  0.198000  6.430000
0.99188  0.212625  6.697500
1.03321  0.226000  6.990000
1.07813  0.235375  7.313750
1.12714  0.251000  7.670000
1.18081  0.287375  8.060625
1.23985  0.329000  8.490000
1.30511  0.360000  8.953750
1.37761  0.396000  9.480000
1.45865  0.438563  10.114370
1.54981  0.514000  10.800000
1.65314  0.672625  11.445000
1.77122  0.844000  12.200000
1.90746  0.987875  13.155000
2.06642  1.064000  14.400000
