# From SOPRA S.A. http://www.sopra-sa.com/indices.htm
# Filename    Symbol               Range (nm)     Description
# AU          Au                  206     2479    Gold
# lambda/um       n         k
0.20664  1.422000  1.306000
0.20838  1.427375  1.319250
0.21014  1.430000  1.334000
0.21194  1.431125  1.349250
0.21377  1.432000  1.364000
0.21563  1.434875  1.376000
0.21752  1.438000  1.388000
0.21944  1.439750  1.403000
0.22140  1.442000  1.418000
0.22340  1.447125  1.429625
0.22543  1.452000  1.442000
0.22750  1.453125  1.459500
0.22960  1.454000  1.478000
0.23175  1.457625  1.493750
0.23393  1.462000  1.510000
0.23616  1.466000  1.529500
0.23843  1.470000  1.550000
0.24075  1.474125  1.569625
0.24311  1.478000  1.590000
0.24552  1.481125  1.611625
0.24797  1.484000  1.636000
0.25048  1.486500  1.666750
0.25303  1.490000  1.698000
0.25564  1.494750  1.724625
0.25830  1.504000  1.748000
0.26102  1.522625  1.766750
0.26380  1.546000  1.784000
0.26663  1.571500  1.803375
0.26953  1.598000  1.822000
0.27249  1.623625  1.837500
0.27552  1.648000  1.852000
0.27862  1.668875  1.867750
0.28178  1.690000  1.882000
0.28502  1.716500  1.891750
0.28834  1.742000  1.900000
0.29173  1.760000  1.910000
0.29520  1.776000  1.918000
0.29876  1.795000  1.920375
0.30240  1.812000  1.920000
0.30614  1.822625  1.918875
0.30996  1.830000  1.916000
0.31389  1.837125  1.911375
0.31791  1.840000  1.904000
0.32204  1.834250  1.891375
0.32628  1.824000  1.878000
0.33063  1.812000  1.868250
0.33510  1.798000  1.860000
0.33969  1.782000  1.851750
0.34440  1.766000  1.846000
0.34925  1.752500  1.845250
0.35424  1.740000  1.848000
0.35938  1.727625  1.852375
0.36466  1.716000  1.862000
0.37011  1.705875  1.883000
0.37571  1.696000  1.906000
0.38149  1.684750  1.922500
0.38745  1.674000  1.936000
0.39360  1.666000  1.947750
0.39995  1.658000  1.956000
0.40651  1.647250  1.959375
0.41328  1.636000  1.958000
0.42029  1.628000  1.951375
0.42754  1.616000  1.940000
0.43504  1.596250  1.924500
0.44280  1.562000  1.904000
0.45086  1.502125  1.875875
0.45920  1.426000  1.846000
0.46787  1.345875  1.814625
0.47687  1.242000  1.796000
0.48622  1.086750  1.797375
0.49594  0.916000  1.840000
0.50606  0.754500  1.956500
0.51660  0.608000  2.120000
0.52760  0.491750  2.326250
0.53907  0.402000  2.540000
0.55105  0.345500  2.730625
0.56357  0.306000  2.880000
0.57668  0.267625  2.940625
0.59041  0.236000  2.970000
0.60481  0.212375  3.015000
0.61993  0.194000  3.060000
0.63582  0.177750  3.070000
0.65255  0.166000  3.150000
0.67019  0.161000  3.445812
0.68881  0.160000  3.800000
0.70849  0.160875  4.087687
0.72932  0.164000  4.357000
0.75143  0.169500  4.610188
0.77491  0.176000  4.860000
0.79990  0.181375  5.125813
0.82657  0.188000  5.390000
0.85507  0.198125  5.631250
0.88561  0.210000  5.880000
0.91841  0.222125  6.168125
0.95373  0.236000  6.470000
0.99188  0.253125  6.753125
1.03321  0.272000  7.070000
1.07813  0.290500  7.485001
1.12714  0.312000  7.930000
1.18081  0.339375  8.403750
1.23985  0.372000  8.770000
1.30511  0.410188  8.757501
1.37761  0.454000  8.770000
1.45865  0.503063  9.203125
1.54981  0.559000  9.810000
1.65314  0.621563  10.457500
1.77122  0.696000  11.200000
1.90746  0.785250  12.030630
2.06642  0.896000  13.000000
2.25428  1.034000  14.144380
2.47970  1.205000  15.500000
